  STEP   TOTAL TIME             LOCATION OF OBSERVATION POINTS (K,I,J)
                      3  11  29     3  19  26     3  26  23     3  33  20     3  40  17     3  48  14     3  48   9     3  52  17
     1    2.2500        130.39        130.71        107.38        94.808        66.027        28.716        13.561        10.166    
     2    4.5000        128.62        125.54        95.588        96.831        58.091        29.519        12.795        9.7745    
     3    6.7500        122.63        112.91        85.090        90.670        58.907        27.476        12.325        9.3050    
     4    9.0000        101.45        111.75        88.109        87.802        52.212        23.047        12.784        8.9724    
     5    11.250        99.265        106.81        89.166        79.027        51.142        22.082        12.108        8.1704    
     6    13.500        95.034        101.09        84.724        83.001        52.124        22.498        11.766        8.6477    
     7    15.750        92.501        107.26        78.245        83.405        49.703        21.848        11.494        7.7444    
     8    18.000        86.543        101.32        79.045        75.320        46.147        21.544        10.455        7.7220    
     9    20.250        83.270        98.144        76.508        74.725        43.086        21.044        10.568        7.1193    
    10    22.500        73.369        94.098        71.657        70.535        40.255        21.139        9.9224        6.9933    
    11    24.750        77.680        86.063        71.547        64.249        38.878        20.102        10.120        6.8996    
    12    27.000        75.977        82.477        73.895        63.382        39.785        19.802        9.7997        6.2528    
    13    29.250        76.099        89.379        68.366        61.816        38.869        20.102        9.3531        6.7072    
    14    31.500        76.224        82.719        66.445        64.071        38.229        18.280        8.4220        6.8911    
    15    33.750        68.734        81.462        61.151        67.626        39.001        19.001        8.8790        6.4428    
    16    36.000        66.380        87.832        60.704        64.272        39.093        20.159        8.0013        6.0834    
    17    38.250        58.778        75.331        62.614        62.081        39.928        19.519        9.1495        6.2732    
    18    40.500        59.165        83.963        62.091        62.483        40.191        19.170        8.5060        6.3818    
    19    42.750        60.780        76.875        63.239        61.885        38.604        18.333        8.6040        6.3855    
    20    45.000        64.071        78.963        58.108        64.032        38.582        18.103        9.4352        5.8573    
    21    47.250        59.930        77.887        60.400        61.208        36.979        18.775        8.2987        5.4672    
    22    49.500        51.271        82.572        58.293        57.886        35.840        17.898        7.8207        5.1744    
    23    51.750        52.698        78.824        59.479        58.996        37.393        18.227        8.1034        5.5164    
    24    54.000        54.848        79.151        59.194        61.325        39.870        18.297        8.3086        5.9354    
    25    56.250        56.187        81.876        61.060        57.324        38.452        17.819        8.3351        5.7233    
    26    58.500        55.480        82.443        55.453        56.716        36.571        17.414        7.8140        5.2355    
    27    60.750        54.340        81.151        57.746        57.626        42.323        17.190        7.8095        5.5116    
    28    63.000        50.273        76.459        56.471        58.887        39.093        18.028        7.7558        5.4037    
    29    65.250        50.017        75.194        54.884        56.307        38.206        17.955        7.7335        5.8893    
    30    67.500        47.617        72.429        55.052        56.167        37.569        18.180        7.5122        5.1044    
    31    69.750        45.582        76.774        55.527        57.174        34.640        18.915        8.4129        5.1829    
    32    72.000        45.415        74.477        52.508        51.863        36.701        18.272        8.5498        4.4737    
    33    74.250        43.443        79.148        53.852        55.208        37.044        17.077        7.9191        4.5413    
    34    76.500        42.233        75.538        56.857        54.294        36.339        17.891        7.7125        5.1098    
    35    78.750        42.015        74.551        55.906        55.283        35.859        19.103        7.2996        3.9658    
    36    81.000        42.144        76.773        55.424        55.979        37.287        17.456        7.5309        4.4972    
    37    83.250        39.772        78.466        54.101        52.068        35.345        16.989        6.8264        4.1754    
    38    85.500        39.394        75.938        53.547        52.032        37.796        16.023        7.5060        3.7799    
    39    87.750        39.182        76.834        53.382        53.613        38.065        16.831        7.0650        4.5108    
    40    90.000        35.869        74.843        58.334        51.108        36.521        17.473        7.2131        5.1343    
    41    92.250        37.786        74.917        52.956        52.091        35.863        16.845        7.5136        4.7808    
    42    94.500        32.829        73.551        53.030        49.531        35.255        17.330        7.6308        5.1502    
    43    96.750        33.158        75.254        53.876        51.431        34.508        17.250        7.1032        4.5325    
    44    99.000        33.319        72.750        51.188        48.548        36.168        17.917        6.6684        4.4983    
    45    101.25        33.032        72.390        47.953        48.504        36.581        17.493        6.5556        4.6032    
    46    103.50        32.327        72.732        49.065        49.715        34.515        16.604        6.1346        4.6862    
    47    105.75        31.590        74.389        47.799        49.163        32.966        17.126        6.5281        4.2223    
    48    108.00        31.195        71.370        51.297        47.754        36.188        17.244        6.9610        4.0729    
    49    110.25        29.384        74.196        52.666        49.863        35.566        17.314        6.0884        4.0479    
    50    112.50        28.273        73.277        51.281        49.478        33.812        16.992        6.4354        3.8615    
    51    114.75        30.788        76.813        50.519        46.269        32.761        16.884        6.6328        3.8402    
    52    117.00        30.820        73.008        50.977        47.712        32.558        16.237        6.3257        3.9207    
    53    119.25        27.071        72.172        52.633        48.604        35.835        16.938        5.9812        4.3449    
    54    121.50        25.212        73.061        51.621        46.084        33.322        17.592        5.9804        3.8497    
    55    123.75        25.395        77.198        50.533        47.151        33.424        17.205        7.0084        3.9079    
    56    126.00        26.313        74.974        50.440        48.450        35.140        17.015        6.8392        3.6062    
    57    128.25        22.845        72.160        50.830        47.403        33.475        17.277        7.1832        3.3321    
    58    130.50        23.152        69.217        49.649        49.532        35.821        16.468        6.6357        2.9603    
    59    132.75        22.806        73.294        50.173        47.190        35.603        15.759        6.6238        3.9318    
    60    135.00        23.264        71.396        48.050        47.424        35.516        16.647        6.5333        3.7058    
    61    137.25        22.320        70.024        47.652        48.050        34.571        17.563        6.4955        4.1208    
    62    139.50        22.782        69.270        49.103        47.994        35.054        16.604        6.2124        3.8214    
    63    141.75        25.244        73.160        48.763        45.919        35.211        16.343        6.8968        3.4240    
    64    144.00        24.161        71.828        46.862        48.424        35.292        15.136        6.2432        3.4676    
    65    146.25        22.349        68.860        49.043        46.465        36.358        15.675        6.8636        3.4724    
    66    148.50        22.746        69.917        48.883        48.618        37.075        16.300        7.4199        3.4506    
    67    150.75        20.683        69.482        49.866        48.223        35.685        15.928        6.8415        3.7972    
    68    153.00        18.345        71.128        47.809        47.827        36.068        16.713        6.5628        3.0697    
    69    155.25        18.688        71.662        46.039        48.135        34.557        16.595        6.6046        3.1031    
    70    157.50        16.911        69.051        50.212        46.680        34.974        16.738        6.8575        2.6233    
    71    159.75        17.464        70.869        48.108        47.115        35.430        16.617        6.5534        3.2962    
    72    162.00        16.918        67.104        48.276        45.788        34.449        16.806        6.7559        3.2040    
    73    164.25        16.496        68.955        49.592        44.933        34.121        16.388        6.8032        3.1018    
    74    166.50        17.605        68.551        49.422        46.536        36.708        17.635        6.3436        3.7598    
    75    168.75        19.139        68.458        49.241        46.535        34.992        18.296        6.1976        3.2807    
    76    171.00        19.035        66.454        47.743        46.976        34.248        17.128        6.2216        3.0988    
    77    173.25        18.110        69.096        47.434        46.542        33.595        16.633        6.3910        3.3400    
    78    175.50        18.600        67.820        47.094        44.448        33.838        15.517        6.3157        3.0995    
    79    177.75        17.474        65.009        46.504        45.049        34.371        16.153        5.7685        2.8622    
    80    180.00        16.742        65.134        47.447        44.215        34.513        16.210        5.5807        3.0515    
    81    182.25        17.009        65.397        48.740        44.202        35.798        15.839        5.9345        2.9586    
    82    184.50        16.109        66.618        48.417        45.705        33.968        16.035        6.6247        2.8071    
    83    186.75        16.622        64.735        47.874        45.719        34.679        16.609        6.7897        2.8263    
    84    189.00        18.963        65.141        46.332        46.601        35.288        16.311        6.1026        2.7818    
    85    191.25        16.621        63.570        48.523        45.774        34.207        16.591        5.9231        2.9992    
    86    193.50        14.869        65.427        46.476        45.205        33.593        16.155        6.4962        3.2470    
    87    195.75        14.164        63.300        46.718        44.294        34.168        16.545        6.2361        3.0146    
    88    198.00        13.832        63.838        45.857        44.962        34.958        17.879        5.5999        2.7316    
    89    200.25        13.963        64.152        46.988        42.196        36.222        17.275        6.1918        2.9338    
    90    202.50        14.941        63.394        46.825        43.612        34.610        17.476        6.3000        2.9716    
    91    204.75        13.635        62.107        47.622        42.280        35.023        17.425        6.5026        3.0861    
    92    207.00        15.138        62.469        47.882        42.569        35.702        16.307        7.8645        3.0962    
    93    209.25        13.456        60.442        45.338        43.486        35.085        17.660        6.8790        3.0160    
    94    211.50        14.754        60.554        45.640        43.874        35.851        16.770        6.9489        3.0244    
    95    213.75        14.617        59.102        45.938        43.289        34.122        17.381        6.7323        3.1024    
    96    216.00        13.927        59.318        45.240        41.779        34.873        17.641        6.4983        2.9790    
    97    218.25        14.685        60.589        45.525        42.329        34.765        17.042        6.1545        2.8781    
    98    220.50        13.743        59.252        45.803        41.335        33.888        16.631        6.2924        2.6930    
    99    222.75        14.689        58.868        44.186        41.435        34.072        16.624        5.6750        2.9341    
   100    225.00        13.830        60.421        44.235        43.366        34.562        16.454        5.6088        3.1731    
   101    227.25        14.536        61.273        47.687        42.290        34.766        16.584        5.9968        2.7765    
   102    229.50        13.399        61.207        46.277        43.310        33.718        17.136        5.7938        3.2058    
   103    231.75        11.835        59.085        47.153        42.780        35.649        17.352        6.4952        2.8763    
   104    234.00        11.963        59.176        45.543        41.501        34.851        16.688        5.5497        2.1813    
   105    236.25        11.857        58.949        46.110        43.568        34.486        16.373        6.0166        2.2828    
   106    238.50        11.938        57.921        44.636        40.255        34.890        16.426        6.4865        2.4042    
   107    240.75        12.765        57.173        45.439        41.253        34.894        16.033        6.0043        2.5440    
   108    243.00        12.002        56.635        44.389        39.408        33.729        16.280        6.4805        2.5030    
   109    245.25        11.610        54.605        44.749        41.725        33.167        16.425        5.7587        2.5000    
   110    247.50        11.827        55.086        44.614        41.028        34.687        16.524        5.2081        2.5759    
   111    249.75        11.724        54.796        45.398        41.294        34.515        16.400        5.5682        2.5736    
   112    252.00        13.250        54.660        46.479        42.498        34.183        15.956        5.9637        2.4407    
   113    254.25        12.117        55.980        47.054        41.375        35.356        15.611        5.9499        2.3777    
   114    256.50        11.778        52.492        46.181        41.752        35.683        16.172        6.6292        2.3275    
   115    258.75        11.415        54.435        46.700        41.446        35.444        17.444        6.5404        2.4615    
   116    261.00        10.677        54.464        45.343        40.923        33.985        16.872        5.6948        2.4610    
   117    263.25        11.121        54.329        46.314        41.579        32.720        16.682        5.7831        2.2816    
   118    265.50        11.708        55.588        46.466        40.996        33.518        16.453        5.7828        2.4747    
   119    267.75        11.021        55.966        47.746        41.356        34.484        17.362        5.7190        2.6250    
   120    270.00        10.453        53.797        47.180        40.197        34.989        16.972        5.8113        2.8188    
   121    272.25        11.621        53.101        46.126        40.440        34.449        16.638        6.2204        2.5682    
   122    274.50        10.739        52.278        46.254        41.690        33.929        16.104        6.2124        2.6842    
   123    276.75        10.956        51.998        45.914        41.055        33.675        16.461        6.3636        2.7176    
   124    279.00        10.218        50.953        47.778        42.575        32.773        16.645        6.4598        2.4553    
   125    281.25        9.9315        51.099        46.670        41.999        34.562        17.140        6.5284        2.4745    
   126    283.50        10.885        50.788        46.114        41.475        34.658        16.546        6.5148        2.6006    
   127    285.75        9.7970        48.701        45.709        40.114        34.294        16.491        5.9061        2.5584    
   128    288.00        9.5173        50.783        47.655        40.384        35.927        16.245        6.0901        2.5542    
   129    290.25        10.606        49.855        47.465        41.927        35.418        17.125        6.2943        1.9753    
   130    292.50        9.2750        50.197        44.587        40.251        34.044        17.037        6.0485        2.1070    
   131    294.75        8.0931        48.116        45.492        40.745        33.137        16.287        6.0902        1.8919    
   132    297.00        8.5648        48.849        46.446        39.521        34.055        15.836        6.3105        2.3692    
   133    299.25        8.9265        50.685        47.089        39.917        33.424        15.744        5.7964        2.4419    
   134    301.50        9.4625        48.590        46.824        40.192        34.337        16.123        5.2704        2.4539    
   135    303.75        8.6809        48.017        46.349        40.416        33.705        16.135        5.3761        2.4226    
   136    306.00        8.0820        48.501        47.232        38.938        33.995        15.852        5.7249        2.4265    
   137    308.25        9.3240        47.287        45.101        39.465        34.362        16.128        5.4001        2.6883    
   138    310.50        8.8304        46.814        45.554        39.660        34.102        16.002        5.7564        2.1505    
   139    312.75        9.0424        46.725        46.394        38.324        34.200        16.123        6.1575        2.2653    
   140    315.00        9.1427        46.203        45.442        39.728        33.579        16.261        5.5841        2.4418    
   141    317.25        8.9187        45.719        47.021        39.155        33.491        15.915        5.9612        2.1411    
   142    319.50        8.4384        44.636        46.807        41.284        32.271        16.196        6.1608        2.2171    
   143    321.75        8.6669        48.445        46.249        39.855        33.937        16.064        6.4826        2.2048    
   144    324.00        7.5410        48.404        45.945        40.223        34.206        16.348        6.1745        2.5697    
   145    326.25        7.3765        46.186        46.142        41.322        33.498        16.505        6.2587        2.3214    
   146    328.50        7.4368        45.885        46.075        41.599        35.156        15.663        6.1609        1.9511    
   147    330.75        7.1998        44.466        47.635        39.877        34.396        16.377        5.3414        2.1042    
